Date and Time:                Wed May 29 10:24:02.998 2024
Software Version:             4.30.30034.0
Temperature (C):              -35
Model:                        DU401_BVF
Data Type:                    Counts (Bg Corrected)
Acquisition Mode:             Accumulate
Trigger Mode:                 Internal
Exposure Time (secs):         0.1
Accumulate Cycle Time (secs): 0.31
Frequency (Hz):               3.2258
Number of Accumulations:      10
Readout Mode:                 Full Vertical Binning
Horizontal binning:           1
Extended Dynamic Range:       off
Horizontally flipped:         false
Vertical Shift Speed (usecs): 16.25
Pixel Readout Time (usecs):   10
Serial Number:                24210
Pre-Amplifier Gain:           1.7x
Spurious Noise Filter Mode:   No Filter
Photon counted:               false
Data Averaging Filter Mode:   No Filter
DongWooDM500i:
Serial Number:                
Wavelength (nm):              690
Grating Groove Density (l/mm):1200



671.08093,8
671.11823,-8
671.15552,7
671.19281,6
671.2301,7
671.26746,2
671.30475,1
671.34204,9
671.37933,10
671.41663,6
671.45392,-6
671.49121,-3
671.5285,0
671.5658,7
671.60309,14
671.64038,10
671.67761,7
671.7149,3
671.7522,-9
671.78949,17
671.82678,9
671.86407,-5
671.90137,8
671.9386,6
671.97589,8
672.01318,-4
672.05048,8
672.08771,5
672.125,6
672.16229,18
672.19952,2
672.23682,10
672.27411,-6
672.31134,13
672.34863,3
672.38586,4
672.42316,11
672.46045,7
672.49768,-2
672.53497,2
672.5722,6
672.6095,6
672.64673,10
672.68396,10
672.72125,-4
672.75848,14
672.79578,10
672.83301,18
672.87024,16
672.90753,11
672.94476,8
672.98199,3
673.01929,-1
673.05652,2
673.09375,5
673.13098,2
673.16827,9
673.20551,-5
673.24274,13
673.27997,12
673.3172,13
673.35443,3
673.39172,13
673.42896,-2
673.46619,11
673.50342,8
673.54065,4
673.57788,-2
673.61511,5
673.65234,-3
673.68958,10
673.72681,-1
673.76404,5
673.80127,11
673.8385,6
673.87567,2
673.9129,6
673.95013,5
673.98737,3
674.0246,10
674.06183,4
674.099,4
674.13623,7
674.17346,2
674.21069,5
674.24786,8
674.2851,4
674.32233,13
674.3595,14
674.39673,4
674.43396,-2
674.47113,7
674.50836,1
674.54553,2
674.58276,9
674.61993,0
674.65717,1
674.6944,4
674.73157,8
674.76874,8
674.80597,-5
674.84314,7
674.88037,13
674.91754,0
674.95477,11
674.99194,3
675.02911,9
675.06635,0
675.10352,9
675.14069,8
675.17786,2
675.21509,7
675.25226,7
675.28943,0
675.3266,10
675.36383,14
675.401,7
675.43817,0
675.47534,9
675.51251,-1
675.54968,3
675.58685,1
675.62402,7
675.66119,3
675.69836,9
675.73553,2
675.77271,5
675.80988,13
675.84705,3
675.88422,5
675.92139,9
675.95856,7
675.99573,17
676.0329,3
676.07007,7
676.10718,6
676.14435,2
676.18152,3
676.21869,7
676.25586,6
676.29297,5
676.33014,-3
676.36731,5
676.40442,2
676.44159,3
676.47876,6
676.51587,3
676.55304,10
676.59021,14
676.62732,7
676.66449,6
676.7016,12
676.73877,10
676.77588,8
676.81305,4
676.85016,12
676.88733,2
676.92444,13
676.96161,-6
676.99872,10
677.03583,2
677.073,1
677.11011,-4
677.14728,5
677.18439,12
677.2215,11
677.25861,-3
677.29578,8
677.33289,2
677.37,10
677.4071,6
677.44427,9
677.48138,4
677.51849,18
677.5556,2
677.59271,-4
677.62982,8
677.66693,13
677.70404,0
677.74115,6
677.77826,-3
677.81537,17
677.85248,12
677.88959,8
677.9267,2
677.96381,1
678.00092,14
678.03802,6
678.07513,10
678.11224,3
678.14935,5
678.18646,16
678.22351,16
678.26062,17
678.29773,2
678.33484,11
678.37189,2
678.409,-4
678.44611,20
678.48322,15
678.52026,5
678.55737,10
678.59442,7
678.63153,10
678.66864,15
678.70569,22
678.7428,10
678.77985,7
678.81696,11
678.854,0
678.89111,8
678.92816,5
678.96527,1
679.00232,13
679.03943,18
679.07648,6
679.11353,8
679.15063,19
679.18768,19
679.22473,2
679.26184,16
679.29889,17
679.33594,19
679.37305,16
679.4101,19
679.44714,9
679.48419,15
679.52124,16
679.55835,7
679.5954,22
679.63245,15
679.66949,0
679.70654,5
679.74359,20
679.78064,23
679.81769,9
679.85474,5
679.89178,22
679.92883,18
679.96588,15
680.00293,16
680.03998,7
680.07703,20
680.11407,2
680.15112,9
680.18811,17
680.22516,15
680.26221,19
680.29926,19
680.3363,17
680.37329,16
680.41034,10
680.44739,17
680.48444,6
680.52142,19
680.55847,16
680.59552,15
680.63251,4
680.66956,18
680.70654,12
680.74359,9
680.78064,9
680.81763,16
680.85468,16
680.89166,12
680.92871,-4
680.9657,22
681.00269,18
681.03973,12
681.07672,14
681.11377,16
681.15076,22
681.18774,2
681.22479,11
681.26178,3
681.29877,10
681.33582,7
681.3728,14
681.40979,15
681.44678,5
681.48383,24
681.52081,17
681.5578,3
681.59479,16
681.63177,1
681.66876,8
681.70575,14
681.7428,14
681.77979,10
681.81677,17
681.85376,20
681.89075,16
681.92773,2
681.96472,16
682.00171,7
682.03864,6
682.07562,21
682.11261,23
682.1496,17
682.18658,16
682.22357,7
682.26056,19
682.29749,8
682.33447,15
682.37146,7
682.40845,19
682.44537,19
682.48236,12
682.51935,12
682.55634,13
682.59326,10
682.63025,8
682.66718,1
682.70416,13
682.74115,16
682.77808,14
682.81506,8
682.85199,11
682.88898,11
682.9259,10
682.96289,12
682.99982,19
683.0368,11
683.07373,25
683.11066,13
683.14764,12
683.18457,17
683.2215,14
683.25848,14
683.29541,25
683.33234,12
683.36932,11
683.40625,16
683.44318,5
683.4801,14
683.51703,19
683.55402,7
683.59094,18
683.62787,14
683.66479,9
683.70172,16
683.73865,9
683.77557,12
683.8125,21
683.84943,14
683.88635,14
683.92328,19
683.96021,18
683.99713,8
684.03406,18
684.07098,3
684.10791,12
684.14484,5
684.18176,17
684.21863,20
684.25555,7
684.29248,9
684.32941,17
684.36627,16
684.4032,15
684.44012,19
684.47705,8
684.51392,13
684.55084,15
684.58777,8
684.62463,14
684.66156,12
684.69843,17
684.73535,16
684.77228,20
684.80914,16
684.84607,19
684.88293,16
684.91986,22
684.95673,15
684.99359,6
685.03052,15
685.06738,16
685.10431,17
685.14117,7
685.17804,17
685.21497,13
685.25183,16
685.2887,14
685.32556,20
685.36249,11
685.39935,8
685.43622,17
685.47308,21
685.50995,10
685.54688,7
685.58374,5
685.62061,9
685.65747,23
685.69434,16
685.7312,18
685.76807,18
685.80493,5
685.8418,14
685.87866,19
685.91553,19
685.95239,15
685.98926,8
686.02612,14
686.06299,15
686.09985,24
686.13666,12
686.17352,21
686.21039,11
686.24725,21
686.28412,13
686.32092,24
686.35779,15
686.39465,18
686.43146,18
686.46832,14
686.50519,12
686.54199,13
686.57886,4
686.61572,15
686.65253,11
686.68939,14
686.7262,22
686.76306,14
686.79987,8
686.83673,8
686.87354,11
686.9104,12
686.9472,12
686.98407,6
687.02087,15
687.05768,6
687.09454,7
687.13135,18
687.16815,12
687.20502,15
687.24182,23
687.27863,28
687.31543,16
687.35223,15
687.3891,23
687.4259,7
687.46271,7
687.49951,18
687.53632,23
687.57312,18
687.60992,19
687.64673,15
687.68359,20
687.7204,20
687.7572,24
687.79401,12
687.83075,22
687.86755,27
687.90436,11
687.94116,23
687.97797,17
688.01477,21
688.05157,17
688.08838,14
688.12512,11
688.16193,14
688.19873,18
688.23553,23
688.27234,24
688.30908,15
688.34589,25
688.38269,7
688.41943,12
688.45624,20
688.49298,14
688.52979,18
688.56659,21
688.60333,22
688.64014,14
688.67688,18
688.71368,21
688.75043,21
688.78723,7
688.82397,16
688.86078,13
688.89752,10
688.93427,20
688.97107,23
689.00781,12
689.04456,16
689.08136,22
689.1181,26
689.15485,17
689.19159,26
689.22839,23
689.26514,24
689.30188,25
689.33862,33
689.37537,12
689.41217,25
689.44891,16
689.48566,14
689.5224,22
689.55914,21
689.59589,10
689.63263,22
689.66937,16
689.70612,13
689.74286,17
689.7796,15
689.81635,26
689.85309,21
689.88977,21
689.92651,25
689.96326,31
690,24
690.03674,25
690.07343,25
690.11017,23
690.14691,31
690.18365,25
690.22034,12
690.25708,28
690.29382,22
690.33051,29
690.36725,26
690.40399,33
690.44067,27
690.47742,35
690.5141,29
690.55084,39
690.58752,43
690.62427,27
690.66095,33
690.69769,52
690.73438,35
690.77106,39
690.8078,52
690.84448,42
690.88123,59
690.91791,64
690.95459,89
690.99127,117
691.02802,118
691.0647,142
691.10138,168
691.13806,222
691.1748,333
691.21149,600
691.24817,1096
691.28485,1697
691.32153,1964
691.35822,1628
691.3949,1569
691.43158,940
691.46826,506
691.50494,267
691.54163,99
691.57831,60
691.61499,50
691.65167,57
691.68835,51
691.72504,59
691.76172,53
691.7984,58
691.83508,65
691.8717,55
691.90839,74
691.94507,71
691.98175,78
692.01837,76
692.05505,70
692.09174,73
692.12836,68
692.16504,89
692.20172,85
692.23834,96
692.27502,115
692.31171,134
692.34833,172
692.38501,202
692.42163,245
692.45831,288
692.49493,367
692.53162,466
692.56824,537
692.60486,687
692.64154,1070
692.67816,2066
692.71484,3783
692.75146,5705
692.78809,5937
692.82471,5091
692.86139,4753
692.89801,2593
692.93463,1382
692.97125,636
693.00793,201
693.04456,129
693.08118,85
693.1178,95
693.15442,97
693.19104,92
693.22766,86
693.26428,62
693.3009,54
693.33752,48
693.37415,43
693.41077,35
693.44739,36
693.48401,43
693.52063,16
693.55725,25
693.59387,28
693.63049,23
693.66711,25
693.70367,27
693.7403,27
693.77692,24
693.81354,26
693.85016,28
693.88672,32
693.92334,42
693.95996,22
693.99652,23
694.03314,32
694.06976,25
694.10632,28
694.14294,14
694.1795,24
694.21613,27
694.25269,17
694.28931,27
694.32587,24
694.36249,26
694.39905,17
694.43567,23
694.47223,28
694.50879,17
694.54541,23
694.58197,20
694.61853,23
694.65515,21
694.69171,24
694.72827,24
694.76483,21
694.80145,17
694.83801,27
694.87457,21
694.91113,27
694.94769,31
694.98425,24
695.02081,18
695.05737,16
695.09393,25
695.13049,22
695.16705,14
695.20361,13
695.24017,12
695.27673,26
695.31329,29
695.34985,21
695.38641,20
695.42297,20
695.45953,19
695.49609,22
695.53259,18
695.56915,22
695.60571,18
695.64227,17
695.67877,18
695.71533,15
695.75189,17
695.78839,23
695.82495,23
695.86151,22
695.89801,25
695.93457,22
695.97107,11
696.00763,13
696.04419,15
696.08069,25
696.11725,24
696.15375,27
696.19025,16
696.22681,13
696.26331,23
696.29987,24
696.33636,23
696.37286,17
696.40942,18
696.44592,20
696.48242,19
696.51892,18
696.55548,22
696.59198,11
696.62848,18
696.66498,17
696.70148,20
696.73798,12
696.77454,25
696.81104,17
696.84753,14
696.88403,21
696.92053,15
696.95703,29
696.99353,18
697.03003,17
697.06653,19
697.10303,22
697.13953,21
697.17596,20
697.21246,25
697.24896,21
697.28546,28
697.32196,23
697.35846,25
697.3949,16
697.4314,23
697.4679,26
697.50433,20
697.54083,27
697.57733,23
697.61377,22
697.65027,18
697.68677,24
697.72321,25
697.7597,24
697.79614,24
697.83264,30
697.86908,29
697.90558,16
697.94202,18
697.97852,20
698.01495,19
698.05145,18
698.08789,26
698.12433,12
698.16083,25
698.19727,28
698.2337,24
698.27014,31
698.30664,27
698.34308,24
698.37952,30
698.41595,28
698.45239,25
698.48889,28
698.52533,33
698.56177,41
698.59821,32
698.63464,28
698.67108,28
698.70752,26
698.74396,29
698.7804,25
698.81683,29
698.85327,22
698.88971,37
698.92615,26
698.96259,29
698.99896,21
699.0354,24
699.07184,25
699.10828,19
699.14471,32
699.18109,24
699.21753,33
699.25397,28
699.29034,19
699.32678,26
699.36322,26
699.3996,25
699.43604,31
699.47247,27
699.50885,13
699.54529,19
699.58167,25
699.6181,29
699.65448,23
699.69092,29
699.72729,33
699.76367,27
699.80011,35
699.83649,24
699.87292,34
699.9093,32
699.94568,24
699.98206,33
700.01849,23
700.05487,25
700.09125,35
700.12762,20
700.16406,38
700.20044,33
700.23682,26
700.27319,31
700.30957,26
700.34595,30
700.38232,32
700.4187,33
700.45508,33
700.49146,40
700.52783,53
700.56421,77
700.60059,112
700.63696,77
700.67334,85
700.70972,57
700.74609,41
700.78247,28
700.81879,25
700.85516,25
700.89154,26
700.92792,33
700.96423,25
701.00061,20
701.03699,35
701.0733,27
701.10968,23
701.14606,31
701.18237,20
701.21875,23
701.25507,34
701.29144,31
701.32776,26
701.36414,29
701.40045,30
701.43683,27
701.47314,36
701.50952,31
701.54584,25
701.58215,35
701.61853,32
701.65485,34
701.69116,33
701.72754,29
701.76385,31
701.80017,35
701.83649,35
701.87286,44
701.90918,38
701.9455,43
701.98181,39
702.01813,38
702.05444,33
702.09076,29
702.12708,42
702.16339,44
702.19971,50
702.23602,37
702.27234,51
702.30865,38
702.34497,43
702.38129,46
702.4176,40
702.45392,60
702.49023,45
702.52649,49
702.56281,47
702.59912,51
702.63544,52
702.67169,58
702.70801,58
702.74432,54
702.78064,72
702.81689,61
702.85321,62
702.88947,61
702.92578,66
702.9621,65
702.99835,63
703.03467,66
703.07092,71
703.10724,70
703.14349,69
703.17975,70
703.21606,70
703.25232,63
703.28864,71
703.32489,61
703.36115,74
703.39746,81
703.43372,72
703.46997,66
703.50623,75
703.54254,77
703.5788,74
703.61505,82
703.65131,81
703.68756,81
703.72382,90
703.76007,74
703.79633,102
703.83264,90
703.8689,106
703.90515,115
703.94141,112
703.9776,116
704.01385,113
704.05011,116
704.08636,119
704.12262,102
704.15887,109
704.19513,110
704.23138,108
704.26758,114
704.30383,116
704.34009,109
704.37634,108
704.41254,118
704.44879,113
704.48505,106
704.52124,123
704.5575,114
704.59369,117
704.62994,119
704.6662,120
704.70239,107
704.73865,126
704.77484,119
704.8111,120
704.84729,102
704.88348,106
704.91974,109
704.95593,97
704.99219,103
705.02838,96
705.06458,106
705.10083,98
705.13702,94
705.17322,101
705.20941,101
705.24561,100
705.28186,97
705.31805,101
705.35425,104
705.39044,112
705.42664,115
705.46283,110
705.49902,112
705.53522,107
705.57141,122
705.6076,123
705.6438,115
705.67999,114
705.71619,123
705.75238,129
705.78857,126
705.82477,124
705.86096,131
705.89709,123
705.93329,124
705.96948,141
706.00568,147
706.04187,140
706.078,152
706.1142,156
706.15039,153
706.18652,158
706.22272,153
706.25885,152
706.29504,149
706.33124,154
706.36737,144
706.40356,167
706.4397,169
706.47589,161
706.51202,161
706.54816,158
706.58435,168
706.62048,179
706.65668,167
706.69281,166
706.72894,175
706.76514,160
706.80127,159
706.8374,171
706.87354,174
706.90967,162
706.94586,165
706.98199,154
707.01813,151
707.05426,159
707.09039,154
707.12653,157
707.16266,147
707.19879,137
707.23492,138
707.27106,141
707.30719,150
707.34332,132
707.37946,132
707.41559,137
707.45172,137
707.48785,137
707.52399,138
707.56006,144
707.59619,129
707.63232,137
707.66846,125
707.70453,132
707.74066,149
707.77679,136
707.81293,128
707.849,126
707.88513,144
707.9212,127
707.95734,133
707.99341,132
708.02954,131
708.06561,117
708.10175,135
708.13782,126
708.17395,114
708.21002,119
708.24615,127
708.28223,134
708.3183,117
708.35443,119
708.3905,130
708.42657,111
708.46271,117
708.49878,111
708.53485,105
708.57092,113
708.60699,112
708.64313,106
